S05587
24-06-2016_14:34:09
Saved at time: 516427969 milliseconds
Integration time: 4000000
Scans to average: 0
Boxcar smoothing: 0
Wavelengths	Intensities
337.35134888	1987.00000000
337.80362194	2062.00000000
338.25595141	2165.00000000
338.70833725	2099.00000000
339.16077942	1980.00000000
339.61327788	1903.00000000
340.06583261	2045.00000000
340.51844356	1734.00000000
340.97111069	1821.00000000
341.42383397	1761.00000000
341.87661336	1646.00000000
342.32944883	1815.00000000
342.78234033	1807.00000000
343.23528784	1901.00000000
343.68829131	2092.00000000
344.14135070	1912.00000000
344.59446599	2017.00000000
345.04763714	1848.00000000
345.50086410	1756.00000000
345.95414684	2098.00000000
346.40748532	1910.00000000
346.86087951	1888.00000000
347.31432937	2025.00000000
347.76783486	2117.00000000
348.22139595	1939.00000000
348.67501260	1917.00000000
349.12868478	2017.00000000
349.58241244	1885.00000000
350.03619554	2031.00000000
350.49003406	1951.00000000
350.94392796	1942.00000000
351.39787720	1777.00000000
351.85188173	1919.00000000
352.30594153	1720.00000000
352.76005657	1878.00000000
353.21422679	1750.00000000
353.66845217	1997.00000000
354.12273266	1750.00000000
354.57706824	1818.00000000
355.03145886	1893.00000000
355.48590449	1972.00000000
355.94040509	1996.00000000
356.39496062	1919.00000000
356.84957105	1906.00000000
357.30423634	2015.00000000
357.75895646	2018.00000000
358.21373136	1853.00000000
358.66856102	1700.00000000
359.12344538	1968.00000000
359.57838442	1989.00000000
360.03337811	1592.00000000
360.48842639	1985.00000000
360.94352924	1683.00000000
361.39868662	1963.00000000
361.85389850	1939.00000000
362.30916483	1952.00000000
362.76448558	2026.00000000
363.21986071	1722.00000000
363.67529018	1826.00000000
364.13077397	2039.00000000
364.58631202	2166.00000000
365.04190431	1919.00000000
365.49755080	1736.00000000
365.95325145	2095.00000000
366.40900623	1764.00000000
366.86481509	2013.00000000
367.32067801	2076.00000000
367.77659494	2000.00000000
368.23256584	2055.00000000
368.68859069	1963.00000000
369.14466944	1835.00000000
369.60080206	1969.00000000
370.05698851	1803.00000000
370.51322875	1559.00000000
370.96952275	1749.00000000
371.42587047	2081.00000000
371.88227187	2094.00000000
372.33872691	2083.00000000
372.79523557	1781.00000000
373.25179780	1717.00000000
373.70841357	1938.00000000
374.16508283	1919.00000000
374.62180556	1979.00000000
375.07858171	2064.00000000
375.53541125	2048.00000000
375.99229415	2032.00000000
376.44923035	1637.00000000
376.90621984	1823.00000000
377.36326257	2021.00000000
377.82035850	1817.00000000
378.27750760	1877.00000000
378.73470984	869.00000000
379.19196516	1830.00000000
379.64927355	2043.00000000
380.10663495	1461.00000000
380.56404934	1817.00000000
381.02151668	1908.00000000
381.47903693	2092.00000000
381.93661005	1859.00000000
382.39423600	1771.00000000
382.85191476	2003.00000000
383.30964628	1879.00000000
383.76743053	1840.00000000
384.22526746	1905.00000000
384.68315705	1756.00000000
385.14109926	2045.00000000
385.59909404	1888.00000000
386.05714137	1922.00000000
386.51524120	1942.00000000
386.97339351	1863.00000000
387.43159824	1915.00000000
387.88985537	1971.00000000
388.34816486	1989.00000000
388.80652667	1896.00000000
389.26494076	2027.00000000
389.72340710	1972.00000000
390.18192566	1958.00000000
390.64049638	1929.00000000
391.09911925	2022.00000000
391.55779422	1725.00000000
392.01652125	2010.00000000
392.47530030	1942.00000000
392.93413135	1334.00000000
393.39301436	2118.00000000
393.85194927	2001.00000000
394.31093607	1688.00000000
394.76997472	1922.00000000
395.22906517	1845.00000000
395.68820739	1692.00000000
396.14740134	2033.00000000
396.60664699	2182.00000000
397.06594429	1844.00000000
397.52529322	2071.00000000
397.98469374	2025.00000000
398.44414581	1966.00000000
398.90364938	1697.00000000
399.36320444	2068.00000000
399.82281093	1985.00000000
400.28246882	1949.00000000
400.74217808	2155.00000000
401.20193867	1880.00000000
401.66175054	2009.00000000
402.12161368	2129.00000000
402.58152803	2012.00000000
403.04149356	1968.00000000
403.50151023	2417.00000000
403.96157802	3600.00000000
404.42169687	4051.00000000
404.88186676	2402.00000000
405.34208764	1952.00000000
405.80235949	2080.00000000
406.26268226	1911.00000000
406.72305591	1957.00000000
407.18348042	2286.00000000
407.64395574	2314.00000000
408.10448183	2097.00000000
408.56505866	1723.00000000
409.02568620	1871.00000000
409.48636440	1831.00000000
409.94709324	1974.00000000
410.40787266	1917.00000000
410.86870264	1712.00000000
411.32958314	2058.00000000
411.79051412	1925.00000000
412.25149554	1474.00000000
412.71252738	1743.00000000
413.17360958	2032.00000000
413.63474212	2051.00000000
414.09592496	2130.00000000
414.55715806	2277.00000000
415.01844138	1947.00000000
415.47977490	1928.00000000
415.94115856	2184.00000000
416.40259233	2242.00000000
416.86407619	1799.00000000
417.32561008	1857.00000000
417.78719398	2145.00000000
418.24882784	1962.00000000
418.71051164	2266.00000000
419.17224533	1843.00000000
419.63402887	2248.00000000
420.09586223	2189.00000000
420.55774538	2054.00000000
421.01967827	2038.00000000
421.48166087	2151.00000000
421.94369315	1931.00000000
422.40577506	2220.00000000
422.86790657	2050.00000000
423.33008764	1504.00000000
423.79231823	2272.00000000
424.25459832	2314.00000000
424.71692786	2051.00000000
425.17930681	2186.00000000
425.64173514	2116.00000000
426.10421281	2230.00000000
426.56673978	2045.00000000
427.02931602	1771.00000000
427.49194150	2210.00000000
427.95461617	2380.00000000
428.41733999	2357.00000000
428.88011294	2361.00000000
429.34293497	2383.00000000
429.80580604	1961.00000000
430.26872613	2285.00000000
430.73169519	2424.00000000
431.19471319	2324.00000000
431.65778008	2282.00000000
432.12089584	2311.00000000
432.58406043	2358.00000000
433.04727380	1759.00000000
433.51053593	2258.00000000
433.97384677	2703.00000000
434.43720630	2760.00000000
434.90061446	4722.00000000
435.36407123	11110.00000000
435.82757657	8034.00000000
436.29113044	3404.00000000
436.75473281	2814.00000000
437.21838363	2785.00000000
437.68208288	2694.00000000
438.14583051	2827.00000000
438.60962648	2395.00000000
439.07347077	2476.00000000
439.53736333	2650.00000000
440.00130413	2443.00000000
440.46529314	2701.00000000
440.92933030	2536.00000000
441.39341559	2216.00000000
441.85754898	2504.00000000
442.32173041	2564.00000000
442.78595986	2638.00000000
443.25023730	2467.00000000
443.71456267	2431.00000000
444.17893595	2756.00000000
444.64335711	2787.00000000
445.10782609	2309.00000000
445.57234287	2619.00000000
446.03690741	2701.00000000
446.50151967	2481.00000000
446.96617962	2662.00000000
447.43088721	2565.00000000
447.89564242	2810.00000000
448.36044520	2874.00000000
448.82529553	2743.00000000
449.29019335	2901.00000000
449.75513864	2581.00000000
450.22013135	2844.00000000
450.68517146	2746.00000000
451.15025892	2575.00000000
451.61539370	2562.00000000
452.08057576	2845.00000000
452.54580506	2868.00000000
453.01108157	2792.00000000
453.47640525	2839.00000000
453.94177607	2638.00000000
454.40719398	2693.00000000
454.87265895	2577.00000000
455.33817095	2673.00000000
455.80372993	2639.00000000
456.26933586	2718.00000000
456.73498870	2616.00000000
457.20068842	2850.00000000
457.66643498	2783.00000000
458.13222835	2122.00000000
458.59806847	1597.00000000
459.06395533	2603.00000000
459.52988888	2440.00000000
459.99586908	2787.00000000
460.46189590	2835.00000000
460.92796931	2414.00000000
461.39408926	2770.00000000
461.86025571	2502.00000000
462.32646864	2681.00000000
462.79272800	2661.00000000
463.25903377	2773.00000000
463.72538589	2752.00000000
464.19178433	2597.00000000
464.65822906	2420.00000000
465.12472005	2609.00000000
465.59125725	2596.00000000
466.05784062	2659.00000000
466.52447013	2601.00000000
466.99114575	2448.00000000
467.45786744	2545.00000000
467.92463515	2502.00000000
468.39144886	2499.00000000
468.85830852	2341.00000000
469.32521410	2478.00000000
469.79216557	2589.00000000
470.25916288	2474.00000000
470.72620600	2539.00000000
471.19329489	2366.00000000
471.66042952	2440.00000000
472.12760985	2556.00000000
472.59483583	2471.00000000
473.06210745	2427.00000000
473.52942465	2629.00000000
473.99678740	2759.00000000
474.46419567	2186.00000000
474.93164941	2471.00000000
475.39914860	2511.00000000
475.86669319	2239.00000000
476.33428315	2649.00000000
476.80191844	2432.00000000
477.26959902	2549.00000000
477.73732486	2330.00000000
478.20509592	2402.00000000
478.67291216	2470.00000000
479.14077355	2543.00000000
479.60868006	2451.00000000
480.07663163	2554.00000000
480.54462824	2316.00000000
481.01266985	2612.00000000
481.48075642	2587.00000000
481.94888792	2801.00000000
482.41706430	2668.00000000
482.88528554	2925.00000000
483.35355160	3057.00000000
483.82186243	3361.00000000
484.29021801	3586.00000000
484.75861829	3608.00000000
485.22706324	3787.00000000
485.69555282	4271.00000000
486.16408699	4339.00000000
486.63266573	4264.00000000
487.10128898	4247.00000000
487.56995672	4411.00000000
488.03866891	4251.00000000
488.50742551	3943.00000000
488.97622648	3842.00000000
489.44507179	3403.00000000
489.91396139	3615.00000000
490.38289527	3408.00000000
490.85187337	3794.00000000
491.32089566	3766.00000000
491.78996210	3742.00000000
492.25907266	3386.00000000
492.72822730	2566.00000000
493.19742598	3387.00000000
493.66666867	3306.00000000
494.13595533	3250.00000000
494.60528591	3101.00000000
495.07466040	3176.00000000
495.54407874	2963.00000000
496.01354091	2965.00000000
496.48304686	2841.00000000
496.95259656	2892.00000000
497.42218997	2938.00000000
497.89182706	2488.00000000
498.36150779	2723.00000000
498.83123211	2601.00000000
499.30100000	2509.00000000
499.77081142	2632.00000000
500.24066633	2610.00000000
500.71056469	2379.00000000
501.18050648	2379.00000000
501.65049164	2497.00000000
502.12052014	2419.00000000
502.59059195	2421.00000000
503.06070704	2251.00000000
503.53086535	1928.00000000
504.00106686	1714.00000000
504.47131154	2224.00000000
504.94159933	2188.00000000
505.41193021	2075.00000000
505.88230414	2350.00000000
506.35272109	2358.00000000
506.82318101	2387.00000000
507.29368386	2222.00000000
507.76422962	2373.00000000
508.23481825	2297.00000000
508.70544970	2115.00000000
509.17612395	2100.00000000
509.64684095	2265.00000000
510.11760067	2274.00000000
510.58840307	2317.00000000
511.05924812	2278.00000000
511.53013577	2322.00000000
512.00106600	2229.00000000
512.47203875	2363.00000000
512.94305401	2154.00000000
513.41411173	2149.00000000
513.88521187	2241.00000000
514.35635440	2181.00000000
514.82753927	1922.00000000
515.29876647	2002.00000000
515.77003593	2180.00000000
516.24134764	1923.00000000
516.71270155	2190.00000000
517.18409763	2262.00000000
517.65553584	2219.00000000
518.12701614	2108.00000000
518.59853850	2259.00000000
519.07010287	1710.00000000
519.54170923	2150.00000000
520.01335753	1821.00000000
520.48504774	2097.00000000
520.95677983	2146.00000000
521.42855375	2002.00000000
521.90036946	2008.00000000
522.37222694	1976.00000000
522.84412615	2023.00000000
523.31606704	2113.00000000
523.78804958	2093.00000000
524.26007374	2082.00000000
524.73213947	2094.00000000
525.20424675	2092.00000000
525.67639553	2059.00000000
526.14858578	2237.00000000
526.62081745	1904.00000000
527.09309052	2087.00000000
527.56540495	2243.00000000
528.03776070	2075.00000000
528.51015773	2080.00000000
528.98259601	2202.00000000
529.45507550	1994.00000000
529.92759616	2181.00000000
530.40015795	2096.00000000
530.87276085	2150.00000000
531.34540481	2229.00000000
531.81808979	2130.00000000
532.29081576	2178.00000000
532.76358269	2467.00000000
533.23639053	2515.00000000
533.70923924	2298.00000000
534.18212880	2437.00000000
534.65505917	2589.00000000
535.12803030	2604.00000000
535.60104217	2724.00000000
536.07409473	2815.00000000
536.54718794	3047.00000000
537.02032178	3510.00000000
537.49349620	2606.00000000
537.96671117	4315.00000000
538.43996665	4797.00000000
538.91326261	5220.00000000
539.38659900	6058.00000000
539.85997579	8347.00000000
540.33339294	10663.00000000
540.80685042	14017.00000000
541.28034819	16383.00000000
541.75388622	16383.00000000
542.22746446	15549.00000000
542.70108287	13594.00000000
543.17474144	14281.00000000
543.64844010	14723.00000000
544.12217884	14407.00000000
544.59595761	14517.00000000
545.06977637	15847.00000000
545.54363510	16383.00000000
546.01753374	16383.00000000
546.49147227	15913.00000000
546.96545065	12841.00000000
547.43946884	11677.00000000
547.91352680	10744.00000000
548.38762450	9565.00000000
548.86176191	8229.00000000
549.33593897	7968.00000000
549.81015567	6830.00000000
550.28441195	6358.00000000
550.75870779	5776.00000000
551.23304315	4744.00000000
551.70741799	5061.00000000
552.18183227	4642.00000000
552.65628595	4244.00000000
553.13077901	3870.00000000
553.60531140	3463.00000000
554.07988309	3378.00000000
554.55449403	3120.00000000
555.02914420	3037.00000000
555.50383356	3027.00000000
555.97856206	2842.00000000
556.45332968	2418.00000000
556.92813637	2237.00000000
557.40298210	2442.00000000
557.87786683	2364.00000000
558.35279053	2396.00000000
558.82775315	2150.00000000
559.30275467	2434.00000000
559.77779504	2339.00000000
560.25287423	2269.00000000
560.72799221	1949.00000000
561.20314892	2476.00000000
561.67834435	2162.00000000
562.15357844	2257.00000000
562.62885117	2199.00000000
563.10416249	2312.00000000
563.57951238	2167.00000000
564.05490079	2129.00000000
564.53032769	2136.00000000
565.00579303	2338.00000000
565.48129679	2040.00000000
565.95683893	2275.00000000
566.43241940	2213.00000000
566.90803818	1959.00000000
567.38369523	2228.00000000
567.85939050	1909.00000000
568.33512397	2200.00000000
568.81089559	2247.00000000
569.28670533	2282.00000000
569.76255316	2198.00000000
570.23843902	2056.00000000
570.71436290	2155.00000000
571.19032475	2201.00000000
571.66632453	2169.00000000
572.14236222	2152.00000000
572.61843776	2115.00000000
573.09455113	1802.00000000
573.57070228	2135.00000000
574.04689119	2139.00000000
574.52311781	2078.00000000
574.99938211	2025.00000000
575.47568405	2372.00000000
575.95202359	2592.00000000
576.42840070	3009.00000000
576.90481534	4374.00000000
577.38126747	2903.00000000
577.85775706	2899.00000000
578.33428407	3484.00000000
578.81084846	4655.00000000
579.28745020	3760.00000000
579.76408925	3469.00000000
580.24076557	3969.00000000
580.71747912	3121.00000000
581.19422988	3669.00000000
581.67101780	3902.00000000
582.14784284	4586.00000000
582.62470497	4775.00000000
583.10160416	5087.00000000
583.57854035	5236.00000000
584.05551353	4794.00000000
584.53252365	5009.00000000
585.00957067	4825.00000000
585.48665456	4588.00000000
585.96377529	4559.00000000
586.44093280	4946.00000000
586.91812708	5657.00000000
587.39535807	5724.00000000
587.87262575	4666.00000000
588.34993007	3961.00000000
588.82727101	3540.00000000
589.30464852	3623.00000000
589.78206256	3635.00000000
590.25951311	3710.00000000
590.73700012	3599.00000000
591.21452355	3542.00000000
591.69208338	3553.00000000
592.16967956	4214.00000000
592.64731205	4346.00000000
593.12498082	4509.00000000
593.60268584	4229.00000000
594.08042706	3397.00000000
594.55820445	3233.00000000
595.03601797	2759.00000000
595.51386759	2950.00000000
595.99175326	3051.00000000
596.46967496	2668.00000000
596.94763264	2843.00000000
597.42562627	2790.00000000
597.90365581	2606.00000000
598.38172122	2933.00000000
598.85982248	3336.00000000
599.33795953	3095.00000000
599.81613235	2790.00000000
600.29434089	3012.00000000
600.77258513	2470.00000000
601.25086501	2911.00000000
601.72918052	2579.00000000
602.20753161	2596.00000000
602.68591823	2501.00000000
603.16434037	2509.00000000
603.64279797	2228.00000000
604.12129101	2390.00000000
604.59981945	2498.00000000
605.07838324	2643.00000000
605.55698236	2567.00000000
606.03561676	2492.00000000
606.51428641	2859.00000000
606.99299127	2873.00000000
607.47173131	2949.00000000
607.95050648	3297.00000000
608.42931676	3829.00000000
608.90816210	4350.00000000
609.38704248	5211.00000000
609.86595784	7158.00000000
610.34490816	11886.00000000
610.82389339	16383.00000000
611.30291351	16383.00000000
611.78196847	16383.00000000
612.26105823	11717.00000000
612.74018277	9805.00000000
613.21934204	8740.00000000
613.69853601	8119.00000000
614.17776464	7306.00000000
614.65702789	7147.00000000
615.13632573	6171.00000000
615.61565812	5323.00000000
616.09502502	4930.00000000
616.57442640	4232.00000000
617.05386221	3282.00000000
617.53333243	3567.00000000
618.01283702	3400.00000000
618.49237593	3758.00000000
618.97194914	3853.00000000
619.45155660	3639.00000000
619.93119828	4269.00000000
620.41087415	4240.00000000
620.89058415	4229.00000000
621.37032827	4073.00000000
621.85010646	4098.00000000
622.32991868	4011.00000000
622.80976490	4119.00000000
623.28964508	4261.00000000
623.76955919	4209.00000000
624.24950718	4287.00000000
624.72948902	4448.00000000
625.20950468	4363.00000000
625.68955412	4100.00000000
626.16963729	3851.00000000
626.64975417	4081.00000000
627.12990471	3899.00000000
627.61008889	3474.00000000
628.09030666	3768.00000000
628.57055798	3296.00000000
629.05084283	3575.00000000
629.53116115	3647.00000000
630.01151293	3894.00000000
630.49189811	4442.00000000
630.97231666	4639.00000000
631.45276855	4113.00000000
631.93325374	3339.00000000
632.41377219	2723.00000000
632.89432387	2317.00000000
633.37490873	2526.00000000
633.85552675	2334.00000000
634.33617788	2434.00000000
634.81686209	2232.00000000
635.29757934	2361.00000000
635.77832959	2294.00000000
636.25911281	2282.00000000
636.73992897	2324.00000000
637.22077801	1650.00000000
637.70165992	2381.00000000
638.18257464	2240.00000000
638.66352215	2105.00000000
639.14450240	2232.00000000
639.62551537	2111.00000000
640.10656101	2285.00000000
640.58763928	2146.00000000
641.06875016	2149.00000000
641.54989359	2288.00000000
642.03106956	2162.00000000
642.51227801	2333.00000000
642.99351892	2356.00000000
643.47479224	1524.00000000
643.95609794	2237.00000000
644.43743598	2025.00000000
644.91880633	2253.00000000
645.40020894	2170.00000000
645.88164379	2051.00000000
646.36311083	2360.00000000
646.84461003	2325.00000000
647.32614135	2274.00000000
647.80770476	2329.00000000
648.28930022	2380.00000000
648.77092768	2216.00000000
649.25258712	2107.00000000
649.73427850	2394.00000000
650.21600177	2580.00000000
650.69775691	2753.00000000
651.17954388	2500.00000000
651.66136264	2296.00000000
652.14321315	2460.00000000
652.62509538	2434.00000000
653.10700929	2208.00000000
653.58895484	2299.00000000
654.07093200	2466.00000000
654.55294072	2401.00000000
655.03498098	2369.00000000
655.51705274	2095.00000000
655.99915595	2219.00000000
656.48129059	2252.00000000
656.96345661	2101.00000000
657.44565398	2216.00000000
657.92788266	2223.00000000
658.41014262	2199.00000000
658.89243382	2172.00000000
659.37475621	2032.00000000
659.85710978	2112.00000000
660.33949447	2148.00000000
660.82191025	1984.00000000
661.30435708	2216.00000000
661.78683493	2274.00000000
662.26934377	2346.00000000
662.75188354	2452.00000000
663.23445423	1860.00000000
663.71705578	2109.00000000
664.19968817	2303.00000000
664.68235136	2193.00000000
665.16504530	2124.00000000
665.64776997	1992.00000000
666.13052532	2095.00000000
666.61331133	2103.00000000
667.09612794	1970.00000000
667.57897514	2190.00000000
668.06185287	2141.00000000
668.54476110	1997.00000000
669.02769980	1878.00000000
669.51066893	2031.00000000
669.99366845	2191.00000000
670.47669833	2118.00000000
670.95975852	2283.00000000
671.44284900	2063.00000000
671.92596972	1849.00000000
672.40912065	2162.00000000
672.89230175	2215.00000000
673.37551298	2011.00000000
673.85875431	2232.00000000
674.34202570	2046.00000000
674.82532712	2011.00000000
675.30865852	2067.00000000
675.79201988	2029.00000000
676.27541115	2104.00000000
676.75883229	2054.00000000
677.24228328	2208.00000000
677.72576406	2083.00000000
678.20927462	2249.00000000
678.69281490	1642.00000000
679.17638488	1906.00000000
679.65998451	2102.00000000
680.14361377	2187.00000000
680.62727260	2239.00000000
681.11096098	2034.00000000
681.59467887	2052.00000000
682.07842623	2014.00000000
682.56220303	2117.00000000
683.04600923	1707.00000000
683.52984478	1944.00000000
684.01370967	1905.00000000
684.49760384	2231.00000000
684.98152726	2110.00000000
685.46547989	1882.00000000
685.94946171	2174.00000000
686.43347266	2194.00000000
686.91751272	2376.00000000
687.40158185	2298.00000000
687.88568001	2366.00000000
688.36980716	2218.00000000
688.85396327	2097.00000000
689.33814829	2166.00000000
689.82236221	2140.00000000
690.30660496	2129.00000000
690.79087653	2081.00000000
691.27517687	1965.00000000
691.75950595	2157.00000000
692.24386373	1997.00000000
692.72825017	2264.00000000
693.21266523	2112.00000000
693.69710889	2115.00000000
694.18158109	2003.00000000
694.66608181	2036.00000000
695.15061101	2008.00000000
695.63516866	1910.00000000
696.11975470	1948.00000000
696.60436912	2064.00000000
697.08901187	1810.00000000
697.57368291	1996.00000000
698.05838221	1773.00000000
698.54310973	1887.00000000
699.02786544	1717.00000000
699.51264929	2005.00000000
699.99746125	2034.00000000
700.48230129	2060.00000000
700.96716936	1921.00000000
701.45206544	2045.00000000
701.93698948	1884.00000000
702.42194144	1927.00000000
702.90692130	2076.00000000
703.39192900	1710.00000000
703.87696453	2265.00000000
704.36202783	2201.00000000
704.84711888	2203.00000000
705.33223763	2256.00000000
705.81738405	2400.00000000
706.30255811	2726.00000000
706.78775976	2677.00000000
707.27298897	2576.00000000
707.75824570	2527.00000000
708.24352991	2419.00000000
708.72884158	2825.00000000
709.21418065	2739.00000000
709.69954710	2069.00000000
710.18494089	2276.00000000
710.67036198	2081.00000000
711.15581034	2229.00000000
711.64128592	2579.00000000
712.12678869	2800.00000000
712.61231862	2642.00000000
713.09787566	2105.00000000
713.58345979	2157.00000000
714.06907095	2065.00000000
714.55470913	1921.00000000
715.04037427	1994.00000000
715.52606635	1978.00000000
716.01178533	1987.00000000
716.49753116	2053.00000000
716.98330382	2060.00000000
717.46910326	1468.00000000
717.95492946	1753.00000000
718.44078236	1977.00000000
718.92666194	2037.00000000
719.41256816	1988.00000000
719.89850098	1880.00000000
720.38446037	1757.00000000
720.87044629	1907.00000000
721.35645870	1670.00000000
721.84249756	1999.00000000
722.32856284	2027.00000000
722.81465450	2013.00000000
723.30077251	1751.00000000
723.78691682	1881.00000000
724.27308741	1820.00000000
724.75928423	1862.00000000
725.24550724	1657.00000000
725.73175642	1812.00000000
726.21803172	1999.00000000
726.70433311	1920.00000000
727.19066055	1587.00000000
727.67701400	1808.00000000
728.16339343	2034.00000000
728.64979880	1974.00000000
729.13623007	1806.00000000
729.62268721	1975.00000000
730.10917018	1643.00000000
730.59567893	1808.00000000
731.08221345	1907.00000000
731.56877369	1860.00000000
732.05535960	2058.00000000
732.54197116	2027.00000000
733.02860834	1856.00000000
733.51527108	1809.00000000
734.00195936	1736.00000000
734.48867313	1878.00000000
734.97541237	1826.00000000
735.46217703	2056.00000000
735.94896708	1812.00000000
736.43578248	2083.00000000
736.92262320	2003.00000000
737.40948919	1924.00000000
737.89638043	2021.00000000
738.38329686	2016.00000000
738.87023847	1907.00000000
739.35720520	1689.00000000
739.84419703	1937.00000000
740.33121392	1987.00000000
740.81825582	1848.00000000
741.30532271	1408.00000000
741.79241455	1777.00000000
742.27953129	1948.00000000
742.76667291	2092.00000000
743.25383936	2038.00000000
743.74103061	1967.00000000
744.22824663	2007.00000000
744.71548737	1881.00000000
745.20275280	1521.00000000
745.69004288	2018.00000000
746.17735758	1999.00000000
746.66469685	2059.00000000
747.15206067	1816.00000000
747.63944899	2028.00000000
748.12686178	1924.00000000
748.61429900	1368.00000000
749.10176061	1969.00000000
749.58924659	2019.00000000
750.07675688	2022.00000000
750.56429146	2047.00000000
751.05185028	1837.00000000
751.53943332	1898.00000000
752.02704053	1484.00000000
752.51467187	1606.00000000
753.00232732	1616.00000000
753.49000683	1892.00000000
753.97771036	2047.00000000
754.46543789	1812.00000000
754.95318936	1910.00000000
755.44096476	2005.00000000
755.92876403	1861.00000000
756.41658715	1916.00000000
756.90443407	2061.00000000
757.39230476	1811.00000000
757.88019918	1693.00000000
758.36811730	2091.00000000
758.85605908	2031.00000000
759.34402448	2029.00000000
759.83201346	1946.00000000
760.32002599	2069.00000000
760.80806203	1705.00000000
761.29612155	1939.00000000
761.78420451	1939.00000000
762.27231086	1909.00000000
762.76044058	2026.00000000
763.24859363	1882.00000000
763.73676997	1753.00000000
764.22496956	1758.00000000
764.71319237	1851.00000000
765.20143836	1948.00000000
765.68970749	1956.00000000
766.17799973	1367.00000000
766.66631504	1670.00000000
767.15465338	1814.00000000
767.64301472	1725.00000000
768.13139902	1786.00000000
768.61980624	1871.00000000
769.10823635	1923.00000000
769.59668930	1798.00000000
770.08516507	1954.00000000
770.57366361	1759.00000000
771.06218489	1919.00000000
771.55072888	1761.00000000
772.03929553	1783.00000000
772.52788480	1945.00000000
773.01649667	1963.00000000
773.50513109	1557.00000000
773.99378804	1953.00000000
774.48246746	1943.00000000
774.97116932	1789.00000000
775.45989360	1824.00000000
775.94864024	1958.00000000
776.43740922	1759.00000000
776.92620050	1890.00000000
777.41501403	1638.00000000
777.90384979	1987.00000000
778.39270774	1833.00000000
778.88158784	1903.00000000
779.37049004	1944.00000000
779.85941433	1460.00000000
780.34836066	1836.00000000
780.83732898	1990.00000000
781.32631928	1943.00000000
781.81533150	1654.00000000
782.30436562	1698.00000000
782.79342159	1953.00000000
783.28249938	1925.00000000
783.77159895	1806.00000000
784.26072027	1774.00000000
784.74986329	1915.00000000
785.23902799	1885.00000000
785.72821432	1420.00000000
786.21742225	1937.00000000
786.70665174	1486.00000000
787.19590276	1878.00000000
787.68517526	1820.00000000
788.17446922	1136.00000000
788.66378459	1737.00000000
789.15312133	1604.00000000
789.64247942	1949.00000000
790.13185881	1916.00000000
790.62125947	2042.00000000
791.11068135	1821.00000000
791.60012443	1963.00000000
792.08958867	1661.00000000
792.57907402	1921.00000000
793.06858046	1608.00000000
793.55810795	1829.00000000
794.04765644	1799.00000000
794.53722591	1833.00000000
795.02681631	1875.00000000
795.51642762	1945.00000000
796.00605978	1887.00000000
796.49571277	1934.00000000
796.98538655	1870.00000000
797.47508108	2093.00000000
797.96479632	1827.00000000
798.45453224	1949.00000000
798.94428881	1823.00000000
799.43406597	1861.00000000
799.92386371	1830.00000000
800.41368198	1459.00000000
800.90352074	1944.00000000
801.39337996	1785.00000000
801.88325960	1522.00000000
802.37315962	1881.00000000
802.86307999	1895.00000000
803.35302067	1967.00000000
803.84298163	1885.00000000
804.33296282	1793.00000000
804.82296421	1976.00000000
805.31298576	1926.00000000
805.80302744	1872.00000000
806.29308921	1037.00000000
806.78317103	1957.00000000
807.27327287	1888.00000000
807.76339468	1778.00000000
808.25353644	2166.00000000
808.74369811	2093.00000000
809.23387964	1794.00000000
809.72408100	1995.00000000
810.21430216	1973.00000000
810.70454308	2292.00000000
811.19480372	2087.00000000
811.68508405	2022.00000000
812.17538402	2088.00000000
812.66570360	1927.00000000
813.15604276	1959.00000000
813.64640146	1824.00000000
814.13677965	1957.00000000
814.62717731	1984.00000000
815.11759440	1827.00000000
815.60803088	2004.00000000
816.09848671	2020.00000000
816.58896185	1848.00000000
817.07945628	1914.00000000
817.56996995	1532.00000000
818.06050283	1956.00000000
818.55105488	1962.00000000
819.04162606	1865.00000000
819.53221633	2003.00000000
820.02282567	2086.00000000
820.51345402	1961.00000000
821.00410137	1863.00000000
821.49476766	1513.00000000
821.98545286	1843.00000000
822.47615694	1868.00000000
822.96687986	1925.00000000

